GetSunElevation:     48.6
GetSunAzimuth:       154.8
GetSatElevation:     72.3
GetSatAzimuth:       359
GetPhysicalBias:     [0]
GetPhysicalGain:     [6.17284]
GetSolarIrradiance:  [1381.79]
GetFirstWavelengths: [0.45]
GetLastWavelengths:  [0.9]
GetSpectralSensitivity:  ObjectList (0x19cb100)
  RTTI typeinfo:   otb::ObjectList<otb::FilterFunctionValues>
  Reference Count: 1
  Modified Time: 140
  Debug: Off
  Object Name: 
  Observers: 
    none
  Source: (none)
  Source output name: (none)
  Release Data: Off
  Data Released: False
  Global Release Data: Off
  PipelineMTime: 0
  UpdateMTime: 0
  RealTimeStamp: 0 seconds 
  Size: 1
  List contains : 
    0x19a7610
    FilterFunctionValues (0x19a7610)
  Minimum spectral value       : 0.3
  Maximum spectral value       : 1.1
  Wavelength spectral band step: 0.0025
  Filter function values: 
  0.000000e+00  0.000000e+00  0.000000e+00  0.000000e+00  0.000000e+00  0.000000e+00
  0.000000e+00  0.000000e+00  0.000000e+00  0.000000e+00  0.000000e+00  0.000000e+00
  0.000000e+00  0.000000e+00  0.000000e+00  0.000000e+00  0.000000e+00  0.000000e+00
  0.000000e+00  7.015000e-04  1.403000e-03  1.291000e-03  1.179000e-03  1.141500e-03
  1.104000e-03  1.011450e-03  9.189000e-04  1.048450e-03  1.178000e-03  1.605500e-03
  2.033000e-03  4.449500e-03  6.866000e-03  8.873000e-03  1.088000e-02  1.380500e-02
  1.673000e-02  2.132500e-02  2.592000e-02  3.106000e-02  3.620000e-02  4.341500e-02
  5.063000e-02  5.879000e-02  6.695000e-02  7.576500e-02  8.458000e-02  9.389000e-02
  1.032000e-01  1.125500e-01  1.219000e-01  1.334500e-01  1.450000e-01  1.567000e-01
  1.684000e-01  1.789500e-01  1.895000e-01  2.011000e-01  2.127000e-01  2.162500e-01
  2.198000e-01  2.392000e-01  2.586000e-01  2.669500e-01  2.753000e-01  2.854000e-01
  2.955000e-01  3.054500e-01  3.154000e-01  3.259000e-01  3.364000e-01  3.410000e-01
  3.456000e-01  3.501000e-01  3.546000e-01  3.578500e-01  3.611000e-01  3.648000e-01
  3.685000e-01  3.733000e-01  3.781000e-01  3.875000e-01  3.969000e-01  4.055000e-01
  4.141000e-01  4.275500e-01  4.410000e-01  4.543000e-01  4.676000e-01  4.829000e-01
  4.982000e-01  5.167000e-01  5.352000e-01  5.532000e-01  5.712000e-01  5.924500e-01
  6.137000e-01  6.382000e-01  6.627000e-01  6.839000e-01  7.051000e-01  7.275000e-01
  7.499000e-01  7.704500e-01  7.910000e-01  8.105500e-01  8.301000e-01  8.465000e-01
  8.629000e-01  8.770000e-01  8.911000e-01  9.081000e-01  9.251000e-01  9.293000e-01
  9.335000e-01  9.426500e-01  9.518000e-01  9.569500e-01  9.621000e-01  9.609500e-01
  9.598000e-01  9.752500e-01  9.907000e-01  9.941000e-01  9.975000e-01  9.922000e-01
  9.869000e-01  9.934500e-01  1.000000e+00  9.938000e-01  9.876000e-01  9.877000e-01
  9.878000e-01  9.770000e-01  9.662000e-01  9.572500e-01  9.483000e-01  9.340000e-01
  9.197000e-01  9.190000e-01  9.183000e-01  9.063500e-01  8.944000e-01  8.912000e-01
  8.880000e-01  8.830500e-01  8.781000e-01  8.865000e-01  8.949000e-01  8.921000e-01
  8.893000e-01  8.858000e-01  8.823000e-01  8.869500e-01  8.916000e-01  8.848000e-01
  8.780000e-01  8.879000e-01  8.978000e-01  8.933000e-01  8.888000e-01  8.801000e-01
  8.714000e-01  8.690500e-01  8.667000e-01  8.677000e-01  8.687000e-01  8.699500e-01
  8.712000e-01  8.668500e-01  8.625000e-01  8.717500e-01  8.810000e-01  8.814000e-01
  8.818000e-01  8.897000e-01  8.976000e-01  9.024000e-01  9.072000e-01  9.183500e-01
  9.295000e-01  9.310500e-01  9.326000e-01  9.198000e-01  9.070000e-01  9.130500e-01
  9.191000e-01  9.173000e-01  9.155000e-01  9.097000e-01  9.039000e-01  8.987500e-01
  8.936000e-01  8.870500e-01  8.805000e-01  8.761000e-01  8.717000e-01  8.605000e-01
  8.493000e-01  8.475000e-01  8.457000e-01  8.505000e-01  8.553000e-01  8.567500e-01
  8.582000e-01  8.582500e-01  8.583000e-01  8.627000e-01  8.671000e-01  8.505000e-01
  8.339000e-01  8.389500e-01  8.440000e-01  8.470000e-01  8.500000e-01  8.526500e-01
  8.553000e-01  8.447000e-01  8.341000e-01  8.367500e-01  8.394000e-01  8.235000e-01
  8.076000e-01  8.091000e-01  8.106000e-01  7.850000e-01  7.594000e-01  7.616000e-01
  7.638000e-01  7.490000e-01  7.342000e-01  7.204000e-01  7.066000e-01  7.003500e-01
  6.941000e-01  6.787500e-01  6.634000e-01  6.589500e-01  6.545000e-01  6.365500e-01
  6.186000e-01  6.094500e-01  6.003000e-01  5.961000e-01  5.919000e-01  5.831500e-01
  5.744000e-01  5.526500e-01  5.309000e-01  5.139000e-01  4.969000e-01  4.883500e-01
  4.798000e-01  4.630500e-01  4.463000e-01  4.305000e-01  4.147000e-01  4.097500e-01
  4.048000e-01  3.893000e-01  3.738000e-01  3.593000e-01  3.448000e-01  3.283000e-01
  3.118000e-01  3.035000e-01  2.952000e-01  2.840500e-01  2.729000e-01  2.648000e-01
  2.567000e-01  2.497500e-01  2.428000e-01  2.322000e-01  2.216000e-01  2.161500e-01
  2.107000e-01  2.039000e-01  1.971000e-01  1.873500e-01  1.776000e-01  1.703000e-01
  1.630000e-01  1.557500e-01  1.485000e-01  1.421500e-01  1.358000e-01  1.299000e-01
  1.240000e-01  1.162500e-01  1.085000e-01  1.019700e-01  9.544000e-02  8.927000e-02
  8.310000e-02  7.730500e-02  7.151000e-02  6.746000e-02  6.341000e-02  5.911000e-02
  5.481000e-02  5.119500e-02  4.758000e-02  2.882000e-02  1.006000e-02  5.030000e-03
  0.000000e+00  0.000000e+00  0.000000e+00  0.000000e+00  0.000000e+00  0.000000e+00
  0.000000e+00  0.000000e+00  0.000000e+00  0.000000e+00  0.000000e+00  0.000000e+00
  0.000000e+00  0.000000e+00  0.000000e+00


