Name:  Olive green paint
Type:  Manmade materials
Class:  General Construction Materials
Subclass:  Paints
Particle Size: Solid
Sample No.:  0407UUUPNT
Owner:  National Photographic Interpretation Center 
Wavelength Range:  All
Origin: Spectra obtained from the Noncoventional Exploitation Factors 
Data System of the National Photographic Interpretation Center.
Description:  A smooth, slightly translucent coat of alkyd gloss paint 
on construction lumber (pine wood). Note cellulose spectral features. 
Olive green paint is from the Great Life series by Martin Senour 
Paints. 


Measurement:  Directional (10 Degree) Hemispherical Reflectance
First Column:  X
Second Column:  Y  
X Units:  Wavelength (micrometers)
Y Units:  Reflectance (percent)
First X Value: 0.3
Last X Value: 12.5
Number of X Values: 536
Additional Information:  None

0.3	6.032
0.302	6.032
0.304	6.032
0.306	6.032
0.308	6.032
0.31	6.032
0.312	5.928
0.314	5.928
0.316	5.928
0.318	5.928
0.32	5.928
0.322	5.824
0.324	5.824
0.326	5.824
0.328	5.824
0.33	5.824
0.332	5.824
0.334	5.824
0.336	5.824
0.338	5.824
0.34	5.824
0.342	5.824
0.344	5.824
0.346	5.824
0.348	5.824
0.35	5.824
0.352	5.824
0.354	5.928
0.356	5.928
0.358	5.928
0.36	6.032
0.362	6.032
0.364	6.136
0.366	6.136
0.368	6.24
0.37	6.24
0.372	6.344
0.374	6.448
0.376	6.552
0.378	6.656
0.38	6.76
0.382	6.864
0.384	7.072
0.386	7.176
0.388	7.28
0.39	7.488
0.392	7.592
0.394	7.696
0.396	7.8
0.398	7.904
0.4	8.112
0.402	8.112
0.404	8.216
0.406	8.32
0.408	8.32
0.41	8.424
0.412	8.528
0.414	8.528
0.416	8.632
0.418	8.736
0.42	8.84
0.422	8.944
0.424	9.048
0.426	9.256
0.428	9.36
0.43	9.568
0.432	9.88
0.434	10.088
0.436	10.4
0.438	10.608
0.44	10.92
0.442	11.128
0.444	11.336
0.446	11.544
0.448	11.648
0.45	11.752
0.452	11.856
0.454	11.96
0.456	11.96
0.458	11.96
0.46	12.064
0.462	12.064
0.464	12.064
0.466	12.168
0.468	12.168
0.47	12.168
0.472	12.272
0.474	12.272
0.476	12.376
0.478	12.48
0.48	12.584
0.482	12.688
0.484	12.792
0.486	13
0.488	13.104
0.49	13.312
0.492	13.52
0.494	13.832
0.496	14.04
0.498	14.352
0.5	14.664
0.502	14.976
0.504	15.288
0.506	15.704
0.508	16.12
0.51	16.536
0.512	17.056
0.514	17.576
0.516	18.096
0.518	18.512
0.52	19.136
0.522	19.656
0.524	20.176
0.526	20.8
0.528	21.32
0.53	21.84
0.532	22.256
0.534	22.672
0.536	23.088
0.538	23.296
0.54	23.504
0.542	23.504
0.544	23.4
0.546	23.192
0.548	22.88
0.55	22.464
0.552	21.944
0.554	21.32
0.556	20.696
0.558	19.968
0.56	19.24
0.562	18.616
0.564	17.992
0.566	17.368
0.568	16.848
0.57	16.328
0.572	15.912
0.574	15.496
0.576	15.08
0.578	14.768
0.58	14.456
0.582	14.144
0.584	13.936
0.586	13.728
0.588	13.52
0.59	13.312
0.592	13.104
0.594	12.896
0.596	12.688
0.598	12.48
0.6	12.272
0.602	12.168
0.604	11.96
0.606	11.856
0.608	11.752
0.61	11.648
0.612	11.544
0.614	11.544
0.616	11.44
0.618	11.44
0.62	11.44
0.622	11.44
0.624	11.336
0.626	11.336
0.628	11.336
0.63	11.336
0.632	11.336
0.634	11.336
0.636	11.44
0.638	11.44
0.64	11.544
0.642	11.544
0.644	11.648
0.646	11.752
0.648	11.856
0.65	11.96
0.652	12.064
0.654	12.168
0.656	12.376
0.658	12.48
0.66	12.584
0.662	12.688
0.664	12.792
0.666	12.792
0.668	12.792
0.67	12.792
0.672	12.688
0.674	12.584
0.676	12.584
0.678	12.48
0.68	12.376
0.682	12.272
0.684	12.168
0.686	12.064
0.688	11.96
0.69	11.856
0.692	11.648
0.694	11.544
0.696	11.336
0.698	11.232
0.7	11.128
0.702	10.92
0.704	10.816
0.706	10.816
0.708	10.712
0.71	10.712
0.712	10.816
0.714	10.816
0.716	10.92
0.718	11.128
0.72	11.232
0.722	11.544
0.724	11.752
0.726	12.064
0.728	12.376
0.73	12.688
0.732	13.208
0.734	13.728
0.736	14.456
0.738	15.288
0.74	16.224
0.742	17.472
0.744	19.032
0.746	20.904
0.748	23.088
0.75	25.584
0.752	28.496
0.754	31.72
0.756	35.152
0.758	38.688
0.76	42.12
0.762	45.552
0.764	48.776
0.766	51.688
0.768	54.184
0.77	56.472
0.772	58.448
0.774	60.112
0.776	61.568
0.778	62.712
0.78	63.752
0.782	64.688
0.784	65.312
0.786	65.936
0.788	66.352
0.79	66.872
0.792	67.08
0.794	67.392
0.796	67.496
0.798	67.6
0.8	67.6
0.82	67.08
0.84	65.52
0.86	63.856
0.88	63.024
0.9	62.92
0.92	63.128
0.94	64.168
0.96	65.208
0.98	66.144
1	67.6
1.02	69.784
1.04	72.488
1.06	74.984
1.08	76.232
1.1	79.144
1.12	82.784
1.14	83.408
1.16	82.576
1.18	81.328
1.2	79.976
1.22	80.704
1.24	82.992
1.26	84.344
1.28	85.28
1.3	86.112
1.32	85.592
1.34	82.784
1.36	78.728
1.38	75.608
1.4	70.304
1.42	61.88
1.44	57.304
1.46	56.472
1.48	56.576
1.5	57.72
1.52	58.968
1.54	59.592
1.56	60.216
1.58	60.84
1.6	62.192
1.62	64.168
1.64	65.208
1.66	63.44
1.68	61.568
1.7	59.592
1.72	57.304
1.74	57.928
1.76	57.928
1.78	58.656
1.8	59.28
1.82	59.8
1.84	60.736
1.86	61.048
1.88	57.72
1.9	47.632
1.92	39.104
1.94	39.104
1.96	42.016
1.98	45.24
2	47.424
2.02	47.112
2.04	44.2
2.06	40.872
2.08	38.584
2.1	37.752
2.12	37.648
2.14	37.856
2.16	39.624
2.18	41.6
2.2	42.536
2.22	42.224
2.24	38.5195
2.26	31.8043
2.28	29.0042
2.3	27.8417
2.32	28.1748
2.34	26.2736
2.36	27.8657
2.38	27.5138
2.4	27.564
2.42	26.6415
2.44	25.5069
2.46	23.4539
2.48	21.2334
2.5	21.1617
2.52	21.9631
2.54	23.0416
2.56	24.1719
2.58	24.8612
2.6	26.1216
2.62	26.186
2.64	26.121
2.66	25.153
2.68	23.3299
2.7	19.5612
2.72	12.1134
2.74	9.2122
2.76	6.893
2.78	5.7337
2.8	5.8984
2.82	5.1967
2.84	5.3496
2.86	4.9455
2.88	4.8342
2.9	5.1569
2.92	4.8751
2.94	5.4208
2.96	4.6223
2.98	4.8292
3	5.3082
3.02	5.5329
3.04	4.9572
3.06	4.9673
3.08	4.9759
3.1	5.1311
3.12	5.0429
3.14	5.5217
3.16	5.6058
3.18	5.4928
3.2	5.6748
3.22	5.7167
3.24	5.6564
3.26	5.8089
3.28	5.6935
3.3	5.9543
3.32	5.9917
3.34	5.3138
3.36	5.6196
3.38	5.1436
3.4	4.603
3.42	4.8737
3.44	5.2826
3.46	5.1971
3.48	5.0684
3.5	5.0786
3.52	5.3469
3.54	5.9012
3.56	6.2222
3.58	6.8538
3.6	7.4646
3.62	7.3569
3.64	7.3208
3.66	7.2856
3.68	7.7868
3.7	7.71
3.72	8.0533
3.74	8.02
3.76	8.3979
3.78	8.759
3.8	8.8932
3.82	8.8924
3.84	9.2892
3.86	9.4503
3.88	9.7594
3.9	9.9189
3.92	9.9009
3.94	10.2421
3.96	10.595
3.98	10.9404
4	11.9179
4.02	11.6668
4.04	12.0033
4.06	12.4327
4.08	12.8121
4.1	12.9811
4.12	13.7597
4.14	14.2819
4.16	14.4783
4.18	14.8336
4.2	15.1026
4.22	15.4007
4.24	15.5957
4.26	15.6805
4.28	16.044
4.3	16.0393
4.32	16.3655
4.34	16.3152
4.36	16.2121
4.38	16.3689
4.4	16.1005
4.42	15.832
4.44	15.9753
4.46	15.8924
4.48	15.94
4.5	15.5624
4.52	15.5454
4.54	15.381
4.56	15.1805
4.58	14.8283
4.6	14.58
4.62	14.4774
4.64	13.8316
4.66	13.6305
4.68	13.6718
4.7	13.7757
4.72	13.8221
4.74	13.7629
4.76	13.9064
4.78	13.7546
4.8	13.7732
4.82	13.6578
4.84	13.5765
4.86	13.5823
4.88	13.4532
4.9	13.609
4.92	13.6635
4.94	13.9554
4.96	14.0161
4.98	14.0213
5	13.8608
5.1	14.4828
5.2	15.2176
5.3	14.4102
5.4	13.8112
5.5	11.8049
5.6	7.1863
5.7	3.2387
5.8	5.7035
5.9	5.6681
6	5.5107
6.1	5.5036
6.2	5.427
6.3	5.2023
6.4	6.8232
6.5	6.8081
6.6	4.5409
6.7	4.7242
6.8	3.8662
6.9	4.242
7	4.1661
7.1	4.0623
7.2	3.8694
7.3	3.95
7.4	3.8437
7.5	3.6734
7.6	3.258
7.7	3.205
7.8	3.5435
7.9	3.81
8	4.2104
8.1	4.2139
8.2	4.2682
8.3	3.865
8.4	3.832
8.5	3.6631
8.6	3.6175
8.7	3.7137
8.8	3.8232
8.9	4.2369
9	4.9781
9.1	5.334
9.2	6.2701
9.3	7.0865
9.4	7.6188
9.5	6.7384
9.6	6.7098
9.7	6.8182
9.8	7.1735
9.9	7.117
10	6.7019
10.1	6.1926
10.2	6.1998
10.3	5.9007
10.4	5.9675
10.5	5.6768
10.6	5.6363
10.7	5.5845
10.8	4.8968
10.9	4.7692
11	4.6669
11.1	4.6924
11.2	5.2141
11.3	5.1791
11.4	4.8396
11.5	5.0617
11.6	4.9271
11.7	4.7784
11.8	4.6288
11.9	4.1819
12	4.2608
12.1	3.6131
12.2	3.5835
12.3	2.6985
12.4	2.5688
12.5	3.7876
