Name:  Construction  Concrete 
Type:  Manmade materials
Class:  Concretes  
Subclass:  Paving Concretes 
Particle Size: Solid
Sample No.:  0424UUUCNC
Owner:  National Photographic Interpretation Center 
Wavelength Range:  All
Origin: Spectra obtained from the Noncoventional Exploitation Factors 
Data System of the National Photographic Interpretation Center.
Description:  Variegated construction concrete, with quartz and 
limestone aggregate showing. Sample was gray, and slightly soiled. 
Concrete was from runway side strips.



Measurement:  Directional (10 Degree) Hemispherical Reflectance
First Column:  X
Second Column:  Y  
X Units:  Wavelength (micrometers)
Y Units:  Reflectance (percent)
First X Value: 0.42
Last X Value:  14
Number of X Values: 491
Additional Information:  None

0.42	18.1754
0.422	18.8693
0.424	19.8154
0.426	20.1899
0.428	19.6716
0.43	20.1326
0.432	20.2566
0.434	19.9878
0.436	19.834
0.438	20.4027
0.44	20.5496
0.442	20.3685
0.444	20.6132
0.446	20.7431
0.448	20.7265
0.45	20.7871
0.452	20.899
0.454	20.9748
0.456	20.9858
0.458	21.0144
0.46	21.1351
0.462	21.1024
0.464	21.2291
0.466	21.2622
0.468	21.2427
0.47	21.2255
0.472	21.326
0.474	21.397
0.476	21.4317
0.478	21.3988
0.48	21.5077
0.482	21.5028
0.484	21.5622
0.486	21.5835
0.488	21.6501
0.49	21.6851
0.492	21.7683
0.494	21.8133
0.496	21.8447
0.498	21.9075
0.5	21.9951
0.502	22.0847
0.504	22.14
0.506	22.2469
0.508	22.338
0.51	22.4297
0.512	22.5362
0.514	22.6224
0.516	22.733
0.518	22.8335
0.52	22.9059
0.522	22.947
0.524	22.9793
0.526	23.0779
0.528	23.1943
0.53	23.3586
0.532	23.49
0.534	23.6726
0.536	23.8071
0.538	23.9772
0.54	24.1443
0.542	24.3016
0.544	24.4277
0.546	24.5445
0.548	24.6305
0.55	24.7135
0.552	24.8189
0.554	24.9767
0.556	25.134
0.558	25.3232
0.56	25.4972
0.562	25.8063
0.564	26.064
0.566	26.3185
0.568	26.5876
0.57	26.7985
0.572	27.0634
0.574	27.2709
0.576	27.5048
0.578	27.7142
0.58	27.9163
0.582	28.1357
0.584	28.3023
0.586	28.4771
0.588	28.6806
0.59	28.8238
0.592	28.9528
0.594	29.1216
0.596	29.2107
0.598	29.3583
0.6	29.4654
0.602	29.5994
0.604	29.6809
0.606	29.7811
0.608	29.9097
0.61	29.9914
0.612	30.0998
0.614	30.1834
0.616	30.2082
0.618	30.3017
0.62	30.3939
0.622	30.4564
0.624	30.5366
0.626	30.5542
0.628	30.6391
0.63	30.7398
0.632	30.7699
0.634	30.8284
0.636	30.9253
0.638	30.9352
0.64	31.0305
0.642	31.0807
0.644	31.1601
0.646	31.2068
0.648	31.2312
0.65	31.3155
0.652	31.3702
0.654	31.4352
0.656	31.4656
0.658	31.5623
0.66	31.6138
0.662	31.6413
0.664	31.732
0.666	31.7885
0.668	31.8442
0.67	31.8904
0.672	31.9503
0.674	31.9913
0.676	32.0603
0.678	32.0638
0.68	32.1831
0.682	32.2138
0.684	32.2568
0.686	32.2845
0.688	32.3547
0.69	32.4006
0.692	32.485
0.694	32.6255
0.696	32.7039
0.698	32.7568
0.7	32.8492
0.702	32.945
0.704	33.0229
0.706	33.0935
0.708	33.1803
0.71	33.233
0.712	33.3414
0.714	33.3799
0.716	33.4372
0.718	33.5159
0.72	33.5924
0.722	33.6354
0.724	33.6957
0.726	33.7928
0.728	33.8369
0.73	33.8832
0.732	33.9509
0.734	33.9956
0.736	34.0263
0.738	34.1103
0.74	34.1721
0.742	34.2157
0.744	34.2816
0.746	34.3301
0.748	34.376
0.75	34.4108
0.752	34.4787
0.754	34.5193
0.756	34.5693
0.758	34.6274
0.76	34.6743
0.762	34.7409
0.764	34.7676
0.766	34.8123
0.768	34.8551
0.77	34.8971
0.772	34.9445
0.774	34.9886
0.776	35.0168
0.778	35.0501
0.78	35.0849
0.782	35.1185
0.784	35.16
0.786	35.209
0.788	35.2417
0.79	35.292
0.792	35.3138
0.794	35.3353
0.796	35.3786
0.798	35.4057
0.8	35.439
0.82	35.7136
0.84	35.8837
0.86	36.023
0.88	36.1484
0.9	36.3217
0.92	36.5443
0.94	36.7693
0.96	36.9909
0.98	37.222
1	37.4284
1.02	37.6259
1.04	37.8604
1.06	38.1538
1.08	38.4787
1.1	38.8927
1.12	39.308
1.14	39.5666
1.16	39.9078
1.18	40.2567
1.2	40.4764
1.22	40.776
1.24	41.166
1.26	41.4719
1.28	41.5707
1.3	41.682
1.32	41.6721
1.34	41.7726
1.36	41.504
1.38	40.4557
1.4	37.9853
1.42	36.8615
1.44	37.4143
1.46	37.8256
1.48	38.4545
1.5	39.1888
1.52	39.8198
1.54	40.3174
1.56	40.7009
1.58	41.0228
1.6	41.2935
1.62	41.4177
1.64	41.4736
1.66	41.5012
1.68	41.4715
1.7	41.2647
1.72	40.9881
1.74	40.522
1.76	40.0765
1.78	39.7489
1.8	39.4307
1.82	39.0975
1.84	38.5311
1.86	37.5215
1.88	34.4236
1.9	29.3813
1.92	26.9272
1.94	26.8949
1.96	27.4026
1.98	28.1543
2	28.9634
2.02	29.961
2.04	30.6924
2.06	31.2739
2.08	31.67
2.1	31.852
2.12	31.9133
2.14	31.7037
2.16	31.1704
2.18	30.6568
2.2	29.6312
2.22	29.0484
2.24	28.5034
2.26	27.755
2.28	26.6391
2.3	25.7217
2.32	23.3154
2.34	21.7357
2.36	23.4852
2.38	24.9848
2.4	24.5618
2.42	23.7885
2.44	22.2863
2.46	20.7244
2.48	18.7369
2.5	17.8579
2.52	17.0168
2.54	15.9381
2.56	18.7622
2.58	19.9427
2.6	20.4028
2.62	20.254
2.64	19.5766
2.66	18.4172
2.68	15.6341
2.7	9.9003
2.72	7.921
2.74	6.1747
2.76	5.4815
2.78	5.4772
2.8	5.4768
2.82	5.4729
2.84	5.3593
2.86	5.2603
2.88	5.1538
2.9	5.0702
2.92	5.0629
2.94	4.9618
2.96	4.9631
2.98	5.0182
3	5.0378
3.02	5.0215
3.04	5.0372
3.06	5.0683
3.08	4.9871
3.1	5.0117
3.12	5.1153
3.14	5.2216
3.16	5.2999
3.18	5.4486
3.2	5.5766
3.22	5.6381
3.24	5.7662
3.26	5.8105
3.28	5.8187
3.3	5.7398
3.32	5.5466
3.34	4.7291
3.36	4.2797
3.38	4.3655
3.4	4.5331
3.42	4.5263
3.44	4.51
3.46	4.4345
3.48	3.924
3.5	4.2985
3.52	4.9307
3.54	5.9561
3.56	6.3879
3.58	6.7014
3.6	7.2235
3.62	7.4796
3.64	7.6171
3.66	7.7481
3.68	7.791
3.7	7.7981
3.72	7.7985
3.74	7.5989
3.76	7.4571
3.78	7.1035
3.8	6.2337
3.82	5.4249
3.84	4.9521
3.86	4.7919
3.88	4.7255
3.9	4.6673
3.92	4.5406
3.94	4.2528
3.96	3.5208
3.98	3.3204
4	3.8379
4.02	4.8332
4.04	5.6116
4.06	6.2524
4.08	6.6616
4.1	6.9582
4.12	7.1164
4.14	7.3459
4.16	7.5306
4.18	7.6238
4.2	7.6786
4.22	7.6901
4.24	7.6412
4.26	7.4982
4.28	7.4963
4.3	7.599
4.32	7.5407
4.34	7.5382
4.36	7.5208
4.38	7.5215
4.4	7.3429
4.42	7.1525
4.44	6.9048
4.46	6.7013
4.48	6.4717
4.5	6.3376
4.52	6.3897
4.54	6.4251
4.56	6.4197
4.58	6.3569
4.6	6.2186
4.62	5.9929
4.64	5.5412
4.66	5.2381
4.68	5.1236
4.7	5.3552
4.72	5.8765
4.74	6.1401
4.76	6.2877
4.78	6.2882
4.8	6.2296
4.82	6.1571
4.84	6.0541
4.86	5.9044
4.88	5.7078
4.9	5.4385
4.92	5.1624
4.94	5.0617
4.96	4.947
4.98	4.8024
5	4.7076
5.1	4.1439
5.2	4.3887
5.3	3.555
5.4	3.254
5.5	2.6782
5.6	2.0097
5.7	2.243
5.8	2.0388
5.9	1.8089
6	1.6219
6.1	1.5677
6.2	1.8744
6.3	2.7541
6.4	6.6386
6.5	10.0155
6.6	9.2499
6.7	7.8923
6.8	6.8147
6.9	6.1718
7	5.9124
7.1	5.563
7.2	4.0126
7.3	3.8187
7.4	4.2138
7.5	4.47
7.6	4.6295
7.7	5.2751
7.8	5.5301
7.9	6.1412
8	7.425
8.1	9.0469
8.2	10.6025
8.3	10.1178
8.4	9.3523
8.5	8.8436
8.6	7.4925
8.7	8.7206
8.8	9.0868
8.9	9.2975
9	9.3301
9.1	9.5127
9.2	9.5307
9.3	9.4935
9.4	7.8253
9.5	6.4785
9.6	5.8504
9.7	5.5034
9.8	5.0714
9.9	4.8637
10	4.6996
10.1	4.5394
10.2	4.3961
10.3	4.3667
10.4	4.3105
10.5	4.1729
10.6	4.0828
10.7	4.0669
10.8	4.1933
10.9	4.3324
11	4.4414
11.1	4.6322
11.2	5.1259
11.3	5.9438
11.4	4.7756
11.5	3.5044
11.6	3.4958
11.7	3.3231
11.8	2.8131
11.9	3.1365
12	2.9528
12.1	2.7793
12.2	2.528
12.3	2.3841
12.4	3.1679
12.5	3.6566
12.6	3.4425
12.7	3.558
12.8	3.9669
12.9	3.672
13	3.3955
13.1	3.2698
13.2	3.3459
13.3	3.1916
13.4	3.1562
13.5	2.9798
13.6	2.8338
13.7	2.6593
13.8	2.3784
13.9	1.8573
14	1.7063
